Wavenumber;Absorbance
681.24;1.63
681.48;1.63
681.72;1.63
681.97;1.63
682.21;1.62
682.45;1.62
682.69;1.62
682.93;1.62
683.17;1.62
683.41;1.63
683.65;1.63
683.89;1.63
684.13;1.63
684.38;1.63
684.62;1.63
684.86;1.63
685.10;1.63
685.34;1.63
685.58;1.63
685.82;1.63
686.06;1.63
686.30;1.63
686.55;1.63
686.79;1.63
687.03;1.63
687.27;1.62
687.51;1.62
687.75;1.62
687.99;1.62
688.23;1.62
688.47;1.62
688.72;1.62
688.96;1.62
689.20;1.62
689.44;1.62
689.68;1.61
689.92;1.61
690.16;1.61
690.40;1.61
690.64;1.61
690.88;1.61
691.13;1.61
691.37;1.60
691.61;1.60
691.85;1.60
692.09;1.60
692.33;1.59
692.57;1.59
692.81;1.59
693.05;1.59
693.30;1.59
693.54;1.59
693.78;1.58
694.02;1.58
694.26;1.58
694.50;1.58
694.74;1.58
694.98;1.58
695.22;1.58
695.46;1.58
695.71;1.57
695.95;1.57
696.19;1.57
696.43;1.57
696.67;1.56
696.91;1.56
697.15;1.56
697.39;1.56
697.63;1.55
697.88;1.55
698.12;1.55
698.36;1.55
698.60;1.55
698.84;1.55
699.08;1.55
699.32;1.55
699.56;1.55
699.80;1.55
700.04;1.55
700.29;1.55
700.53;1.55
700.77;1.55
701.01;1.55
701.25;1.55
701.49;1.55
701.73;1.55
701.97;1.55
702.21;1.55
702.46;1.54
702.70;1.54
702.94;1.54
703.18;1.54
703.42;1.54
703.66;1.54
703.90;1.53
704.14;1.53
704.38;1.53
704.63;1.53
704.87;1.53
705.11;1.53
705.35;1.53
705.59;1.53
705.83;1.53
706.07;1.53
706.31;1.53
706.55;1.53
706.79;1.53
707.04;1.53
707.28;1.53
707.52;1.53
707.76;1.53
708.00;1.52
708.24;1.52
708.48;1.52
708.72;1.52
708.96;1.52
709.21;1.52
709.45;1.52
709.69;1.52
709.93;1.52
710.17;1.52
710.41;1.52
710.65;1.52
710.89;1.52
711.13;1.52
711.37;1.52
711.62;1.52
711.86;1.52
712.10;1.52
712.34;1.52
712.58;1.52
712.82;1.52
713.06;1.53
713.30;1.53
713.54;1.53
713.79;1.53
714.03;1.53
714.27;1.53
714.51;1.54
714.75;1.54
714.99;1.54
715.23;1.54
715.47;1.54
715.71;1.55
715.96;1.55
716.20;1.55
716.44;1.56
716.68;1.56
716.92;1.56
717.16;1.57
717.40;1.57
717.64;1.57
717.88;1.58
718.12;1.59
718.37;1.59
718.61;1.60
718.85;1.61
719.09;1.62
719.33;1.63
719.57;1.64
719.81;1.65
720.05;1.67
720.29;1.69
720.54;1.70
720.78;1.72
721.02;1.74
721.26;1.77
721.50;1.79
721.74;1.81
721.98;1.84
722.22;1.87
722.46;1.89
722.70;1.92
722.95;1.94
723.19;1.96
723.43;1.97
723.67;1.97
723.91;1.97
724.15;1.95
724.39;1.93
724.63;1.90
724.87;1.88
725.12;1.85
725.36;1.82
725.60;1.79
725.84;1.76
726.08;1.73
726.32;1.70
726.56;1.68
726.80;1.65
727.04;1.63
727.29;1.62
727.53;1.60
727.77;1.59
728.01;1.57
728.25;1.56
728.49;1.55
728.73;1.55
728.97;1.54
729.21;1.53
729.45;1.53
729.70;1.52
729.94;1.52
730.18;1.52
730.42;1.51
730.66;1.51
730.90;1.51
731.14;1.50
731.38;1.50
731.62;1.50
731.87;1.49
732.11;1.49
732.35;1.49
732.59;1.49
732.83;1.49
733.07;1.49
733.31;1.48
733.55;1.48
733.79;1.48
734.03;1.48
734.28;1.48
734.52;1.48
734.76;1.48
735.00;1.48
735.24;1.48
735.48;1.48
735.72;1.48
735.96;1.48
736.20;1.47
736.45;1.47
736.69;1.47
736.93;1.47
737.17;1.47
737.41;1.47
737.65;1.47
737.89;1.47
738.13;1.47
738.37;1.47
738.61;1.47
738.86;1.47
739.10;1.47
739.34;1.47
739.58;1.47
739.82;1.47
740.06;1.47
740.30;1.47
740.54;1.47
740.78;1.47
741.03;1.47
741.27;1.47
741.51;1.47
741.75;1.47
741.99;1.47
742.23;1.47
742.47;1.47
742.71;1.47
742.95;1.47
743.20;1.47
743.44;1.47
743.68;1.47
743.92;1.47
744.16;1.47
744.40;1.47
744.64;1.47
744.88;1.47
745.12;1.47
745.36;1.47
745.61;1.47
745.85;1.47
746.09;1.47
746.33;1.47
746.57;1.47
746.81;1.46
747.05;1.46
747.29;1.46
747.53;1.47
747.78;1.47
748.02;1.47
748.26;1.47
748.50;1.47
748.74;1.46
748.98;1.46
749.22;1.46
749.46;1.46
749.70;1.46
749.94;1.46
750.19;1.46
750.43;1.46
750.67;1.46
750.91;1.46
751.15;1.46
751.39;1.46
751.63;1.46
751.87;1.46
752.11;1.46
752.36;1.46
752.60;1.46
752.84;1.46
753.08;1.46
753.32;1.46
753.56;1.46
753.80;1.46
754.04;1.46
754.28;1.46
754.53;1.46
754.77;1.46
755.01;1.45
755.25;1.45
755.49;1.45
755.73;1.45
755.97;1.45
756.21;1.45
756.45;1.45
756.69;1.45
756.94;1.45
757.18;1.45
757.42;1.45
757.66;1.45
757.90;1.45
758.14;1.45
758.38;1.45
758.62;1.45
758.86;1.45
759.11;1.45
759.35;1.45
759.59;1.45
759.83;1.45
760.07;1.45
760.31;1.44
760.55;1.44
760.79;1.44
761.03;1.44
761.27;1.44
761.52;1.44
761.76;1.44
762.00;1.44
762.24;1.44
762.48;1.44
762.72;1.44
762.96;1.44
763.20;1.44
763.44;1.44
763.69;1.44
763.93;1.44
764.17;1.44
764.41;1.44
764.65;1.44
764.89;1.44
765.13;1.44
765.37;1.44
765.61;1.44
765.85;1.44
766.10;1.44
766.34;1.44
766.58;1.44
766.82;1.44
767.06;1.44
767.30;1.43
767.54;1.43
767.78;1.43
768.02;1.43
768.27;1.43
768.51;1.43
768.75;1.43
768.99;1.43
769.23;1.43
769.47;1.43
769.71;1.43
769.95;1.43
770.19;1.43
770.44;1.43
770.68;1.43
770.92;1.43
771.16;1.43
771.40;1.43
771.64;1.43
771.88;1.43
772.12;1.43
772.36;1.42
772.60;1.42
772.85;1.42
773.09;1.42
773.33;1.42
773.57;1.42
773.81;1.42
774.05;1.42
774.29;1.42
774.53;1.42
774.77;1.42
775.02;1.42
775.26;1.42
775.50;1.42
775.74;1.42
775.98;1.42
776.22;1.42
776.46;1.42
776.70;1.42
776.94;1.42
777.18;1.42
777.43;1.42
777.67;1.42
777.91;1.42
778.15;1.42
778.39;1.42
778.63;1.42
778.87;1.42
779.11;1.42
779.35;1.42
779.60;1.42
779.84;1.42
780.08;1.42
780.32;1.42
780.56;1.42
780.80;1.42
781.04;1.42
781.28;1.42
781.52;1.42
781.77;1.42
782.01;1.42
782.25;1.42
782.49;1.42
782.73;1.42
782.97;1.42
783.21;1.42
783.45;1.42
783.69;1.42
783.93;1.42
784.18;1.42
784.42;1.42
784.66;1.42
784.90;1.42
785.14;1.42
785.38;1.42
785.62;1.42
785.86;1.42
786.10;1.42
786.35;1.42
786.59;1.42
786.83;1.42
787.07;1.42
787.31;1.42
787.55;1.43
787.79;1.43
788.03;1.43
788.27;1.43
788.51;1.43
788.76;1.43
789.00;1.43
789.24;1.43
789.48;1.43
789.72;1.43
789.96;1.43
790.20;1.44
790.44;1.44
790.68;1.44
790.93;1.44
791.17;1.44
791.41;1.44
791.65;1.44
791.89;1.44
792.13;1.44
792.37;1.44
792.61;1.45
792.85;1.45
793.10;1.45
793.34;1.46
793.58;1.47
793.82;1.47
794.06;1.48
794.30;1.49
794.54;1.50
794.78;1.51
795.02;1.53
795.26;1.54
795.51;1.56
795.75;1.58
795.99;1.60
796.23;1.61
796.47;1.63
796.71;1.64
796.95;1.65
797.19;1.65
797.43;1.64
797.68;1.63
797.92;1.61
798.16;1.60
798.40;1.58
798.64;1.56
798.88;1.54
799.12;1.53
799.36;1.52
799.60;1.51
799.84;1.50
800.09;1.49
800.33;1.48
800.57;1.48
800.81;1.47
801.05;1.47
801.29;1.46
801.53;1.46
801.77;1.46
802.01;1.46
802.26;1.46
802.50;1.45
802.74;1.45
802.98;1.45
803.22;1.45
803.46;1.45
803.70;1.45
803.94;1.45
804.18;1.45
804.42;1.45
804.67;1.45
804.91;1.45
805.15;1.44
805.39;1.44
805.63;1.44
805.87;1.44
806.11;1.44
806.35;1.44
806.59;1.44
806.84;1.44
807.08;1.44
807.32;1.44
807.56;1.44
807.80;1.44
808.04;1.44
808.28;1.44
808.52;1.44
808.76;1.44
809.01;1.44
809.25;1.44
809.49;1.44
809.73;1.44
809.97;1.44
810.21;1.44
810.45;1.44
810.69;1.44
810.93;1.44
811.17;1.44
811.42;1.44
811.66;1.44
811.90;1.44
812.14;1.44
812.38;1.44
812.62;1.44
812.86;1.44
813.10;1.44
813.34;1.44
813.59;1.44
813.83;1.44
814.07;1.44
814.31;1.44
814.55;1.44
814.79;1.44
815.03;1.44
815.27;1.44
815.51;1.44
815.75;1.44
816.00;1.44
816.24;1.44
816.48;1.44
816.72;1.44
816.96;1.44
817.20;1.45
817.44;1.45
817.68;1.45
817.92;1.45
818.17;1.45
818.41;1.45
818.65;1.45
818.89;1.45
819.13;1.45
819.37;1.45
819.61;1.45
819.85;1.45
820.09;1.45
820.34;1.45
820.58;1.45
820.82;1.45
821.06;1.45
821.30;1.45
821.54;1.45
821.78;1.45
822.02;1.45
822.26;1.45
822.50;1.45
822.75;1.45
822.99;1.46
823.23;1.46
823.47;1.46
823.71;1.46
823.95;1.46
824.19;1.46
824.43;1.46
824.67;1.46
824.92;1.46
825.16;1.46
825.40;1.46
825.64;1.46
825.88;1.46
826.12;1.46
826.36;1.46
826.60;1.46
826.84;1.46
827.08;1.46
827.33;1.46
827.57;1.46
827.81;1.46
828.05;1.46
828.29;1.46
828.53;1.46
828.77;1.46
829.01;1.47
829.25;1.47
829.50;1.47
829.74;1.47
829.98;1.47
830.22;1.47
830.46;1.47
830.70;1.47
830.94;1.47
831.18;1.48
831.42;1.48
831.67;1.48
831.91;1.48
832.15;1.48
832.39;1.48
832.63;1.48
832.87;1.48
833.11;1.48
833.35;1.48
833.59;1.48
833.83;1.48
834.08;1.48
834.32;1.48
834.56;1.48
834.80;1.49
835.04;1.49
835.28;1.49
835.52;1.49
835.76;1.49
836.00;1.49
836.25;1.50
836.49;1.50
836.73;1.50
836.97;1.50
837.21;1.50
837.45;1.50
837.69;1.50
837.93;1.50
838.17;1.51
838.41;1.51
838.66;1.51
838.90;1.51
839.14;1.52
839.38;1.52
839.62;1.53
839.86;1.53
840.10;1.54
840.34;1.54
840.58;1.55
840.83;1.56
841.07;1.56
841.31;1.57
841.55;1.58
841.79;1.58
842.03;1.59
842.27;1.60
842.51;1.60
842.75;1.61
842.99;1.61
843.24;1.61
843.48;1.61
843.72;1.61
843.96;1.61
844.20;1.62
844.44;1.62
844.68;1.62
844.92;1.62
845.16;1.62
845.41;1.62
845.65;1.62
845.89;1.62
846.13;1.63
846.37;1.63
846.61;1.63
846.85;1.63
847.09;1.63
847.33;1.63
847.58;1.63
847.82;1.63
848.06;1.63
848.30;1.63
848.54;1.63
848.78;1.63
849.02;1.63
849.26;1.63
849.50;1.63
849.74;1.62
849.99;1.62
850.23;1.62
850.47;1.61
850.71;1.61
850.95;1.61
851.19;1.60
851.43;1.60
851.67;1.60
851.91;1.59
852.16;1.59
852.40;1.58
852.64;1.58
852.88;1.58
853.12;1.57
853.36;1.57
853.60;1.57
853.84;1.56
854.08;1.56
854.32;1.56
854.57;1.56
854.81;1.56
855.05;1.56
855.29;1.55
855.53;1.55
855.77;1.55
856.01;1.55
856.25;1.55
856.49;1.55
856.74;1.55
856.98;1.55
857.22;1.55
857.46;1.55
857.70;1.55
857.94;1.56
858.18;1.56
858.42;1.56
858.66;1.56
858.91;1.56
859.15;1.56
859.39;1.56
859.63;1.56
859.87;1.56
860.11;1.57
860.35;1.57
860.59;1.57
860.83;1.57
861.07;1.58
861.32;1.58
861.56;1.58
861.80;1.58
862.04;1.58
862.28;1.59
862.52;1.59
862.76;1.59
863.00;1.59
863.24;1.59
863.49;1.59
863.73;1.60
863.97;1.60
864.21;1.60
864.45;1.60
864.69;1.61
864.93;1.61
865.17;1.61
865.41;1.61
865.65;1.61
865.90;1.62
866.14;1.62
866.38;1.62
866.62;1.62
866.86;1.62
867.10;1.62
867.34;1.63
867.58;1.63
867.82;1.63
868.07;1.63
868.31;1.63
868.55;1.63
868.79;1.63
869.03;1.64
869.27;1.64
869.51;1.64
869.75;1.64
869.99;1.64
870.23;1.65
870.48;1.65
870.72;1.65
870.96;1.65
871.20;1.65
871.44;1.65
871.68;1.65
871.92;1.65
872.16;1.65
872.40;1.65
872.65;1.65
872.89;1.65
873.13;1.65
873.37;1.65
873.61;1.65
873.85;1.65
874.09;1.65
874.33;1.65
874.57;1.65
874.82;1.65
875.06;1.64
875.30;1.64
875.54;1.64
875.78;1.64
876.02;1.64
876.26;1.64
876.50;1.64
876.74;1.63
876.98;1.63
877.23;1.63
877.47;1.63
877.71;1.63
877.95;1.63
878.19;1.62
878.43;1.62
878.67;1.62
878.91;1.62
879.15;1.62
879.40;1.62
879.64;1.62
879.88;1.62
880.12;1.61
880.36;1.61
880.60;1.61
880.84;1.61
881.08;1.61
881.32;1.61
881.56;1.60
881.81;1.60
882.05;1.60
882.29;1.60
882.53;1.60
882.77;1.60
883.01;1.59
883.25;1.59
883.49;1.59
883.73;1.59
883.98;1.59
884.22;1.59
884.46;1.59
884.70;1.59
884.94;1.59
885.18;1.58
885.42;1.58
885.66;1.58
885.90;1.58
886.15;1.58
886.39;1.58
886.63;1.58
886.87;1.58
887.11;1.58
887.35;1.58
887.59;1.58
887.83;1.58
888.07;1.58
888.31;1.57
888.56;1.57
888.80;1.57
889.04;1.57
889.28;1.57
889.52;1.57
889.76;1.57
890.00;1.57
890.24;1.57
890.48;1.57
890.73;1.57
890.97;1.57
891.21;1.57
891.45;1.57
891.69;1.57
891.93;1.57
892.17;1.57
892.41;1.57
892.65;1.57
892.89;1.56
893.14;1.56
893.38;1.56
893.62;1.56
893.86;1.56
894.10;1.56
894.34;1.56
894.58;1.56
894.82;1.56
895.06;1.56
895.31;1.56
895.55;1.56
895.79;1.56
896.03;1.56
896.27;1.56
896.51;1.56
896.75;1.56
896.99;1.56
897.23;1.56
897.48;1.57
897.72;1.57
897.96;1.57
898.20;1.57
898.44;1.57
898.68;1.57
898.92;1.57
899.16;1.58
899.40;1.58
899.64;1.58
899.89;1.58
900.13;1.58
900.37;1.59
900.61;1.59
900.85;1.59
901.09;1.59
901.33;1.60
901.57;1.60
901.81;1.60
902.06;1.60
902.30;1.61
902.54;1.61
902.78;1.61
903.02;1.62
903.26;1.62
903.50;1.62
903.74;1.62
903.98;1.63
904.22;1.63
904.47;1.63
904.71;1.64
904.95;1.64
905.19;1.64
905.43;1.65
905.67;1.65
905.91;1.66
906.15;1.66
906.39;1.67
906.64;1.68
906.88;1.68
907.12;1.69
907.36;1.70
907.60;1.71
907.84;1.72
908.08;1.73
908.32;1.74
908.56;1.76
908.80;1.77
909.05;1.78
909.29;1.80
909.53;1.81
909.77;1.82
910.01;1.84
910.25;1.85
910.49;1.86
910.73;1.88
910.97;1.89
911.22;1.90
911.46;1.91
911.70;1.92
911.94;1.93
912.18;1.94
912.42;1.95
912.66;1.96
912.90;1.96
913.14;1.96
913.39;1.96
913.63;1.95
913.87;1.94
914.11;1.93
914.35;1.91
914.59;1.90
914.83;1.88
915.07;1.86
915.31;1.84
915.55;1.82
915.80;1.80
916.04;1.78
916.28;1.77
916.52;1.75
916.76;1.74
917.00;1.72
917.24;1.71
917.48;1.70
917.72;1.69
917.97;1.68
918.21;1.67
918.45;1.66
918.69;1.65
918.93;1.65
919.17;1.64
919.41;1.64
919.65;1.63
919.89;1.63
920.13;1.62
920.38;1.62
920.62;1.61
920.86;1.61
921.10;1.61
921.34;1.61
921.58;1.60
921.82;1.60
922.06;1.60
922.30;1.60
922.55;1.60
922.79;1.60
923.03;1.60
923.27;1.60
923.51;1.60
923.75;1.60
923.99;1.60
924.23;1.60
924.47;1.60
924.72;1.60
924.96;1.60
925.20;1.60
925.44;1.60
925.68;1.60
925.92;1.60
926.16;1.61
926.40;1.61
926.64;1.61
926.88;1.61
927.13;1.61
927.37;1.61
927.61;1.61
927.85;1.62
928.09;1.62
928.33;1.62
928.57;1.62
928.81;1.62
929.05;1.63
929.30;1.63
929.54;1.63
929.78;1.63
930.02;1.64
930.26;1.64
930.50;1.65
930.74;1.65
930.98;1.66
931.22;1.66
931.46;1.67
931.71;1.68
931.95;1.68
932.19;1.69
932.43;1.70
932.67;1.71
932.91;1.71
933.15;1.72
933.39;1.73
933.63;1.74
933.88;1.75
934.12;1.76
934.36;1.77
934.60;1.79
934.84;1.80
935.08;1.81
935.32;1.83
935.56;1.85
935.80;1.86
936.04;1.88
936.29;1.90
936.53;1.92
936.77;1.95
937.01;1.97
937.25;1.99
937.49;2.01
937.73;2.04
937.97;2.06
938.21;2.08
938.46;2.10
938.70;2.12
938.94;2.13
939.18;2.14
939.42;2.14
939.66;2.14
939.90;2.14
940.14;2.13
940.38;2.12
940.63;2.11
940.87;2.10
941.11;2.09
941.35;2.08
941.59;2.07
941.83;2.05
942.07;2.04
942.31;2.03
942.55;2.01
942.79;2.00
943.04;1.99
943.28;1.97
943.52;1.96
943.76;1.94
944.00;1.93
944.24;1.91
944.48;1.90
944.72;1.88
944.96;1.87
945.21;1.85
945.45;1.84
945.69;1.82
945.93;1.81
946.17;1.79
946.41;1.78
946.65;1.76
946.89;1.75
947.13;1.74
947.37;1.73
947.62;1.72
947.86;1.71
948.10;1.70
948.34;1.69
948.58;1.69
948.82;1.68
949.06;1.68
949.30;1.67
949.54;1.67
949.79;1.67
950.03;1.67
950.27;1.66
950.51;1.66
950.75;1.66
950.99;1.65
951.23;1.65
951.47;1.64
951.71;1.64
951.96;1.63
952.20;1.62
952.44;1.61
952.68;1.61
952.92;1.60
953.16;1.59
953.40;1.59
953.64;1.58
953.88;1.58
954.12;1.57
954.37;1.57
954.61;1.57
954.85;1.56
955.09;1.56
955.33;1.56
955.57;1.55
955.81;1.55
956.05;1.55
956.29;1.55
956.54;1.54
956.78;1.54
957.02;1.54
957.26;1.54
957.50;1.53
957.74;1.53
957.98;1.53
958.22;1.53
958.46;1.53
958.70;1.53
958.95;1.52
959.19;1.52
959.43;1.52
959.67;1.52
959.91;1.52
960.15;1.52
960.39;1.52
960.63;1.52
960.87;1.51
961.12;1.51
961.36;1.51
961.60;1.51
961.84;1.51
962.08;1.51
962.32;1.51
962.56;1.51
962.80;1.51
963.04;1.51
963.29;1.51
963.53;1.51
963.77;1.51
964.01;1.51
964.25;1.51
964.49;1.51
964.73;1.51
964.97;1.51
965.21;1.51
965.45;1.51
965.70;1.51
965.94;1.51
966.18;1.51
966.42;1.51
966.66;1.51
966.90;1.50
967.14;1.50
967.38;1.50
967.62;1.50
967.87;1.50
968.11;1.50
968.35;1.50
968.59;1.51
968.83;1.51
969.07;1.51
969.31;1.51
969.55;1.51
969.79;1.51
970.03;1.51
970.28;1.51
970.52;1.51
970.76;1.50
971.00;1.50
971.24;1.51
971.48;1.51
971.72;1.51
971.96;1.51
972.20;1.51
972.45;1.51
972.69;1.51
972.93;1.51
973.17;1.51
973.41;1.51
973.65;1.51
973.89;1.51
974.13;1.51
974.37;1.51
974.61;1.51
974.86;1.51
975.10;1.51
975.34;1.51
975.58;1.51
975.82;1.51
976.06;1.51
976.30;1.51
976.54;1.51
976.78;1.51
977.03;1.51
977.27;1.51
977.51;1.51
977.75;1.51
977.99;1.51
978.23;1.51
978.47;1.51
978.71;1.51
978.95;1.52
979.20;1.52
979.44;1.52
979.68;1.52
979.92;1.52
980.16;1.52
980.40;1.52
980.64;1.52
980.88;1.52
981.12;1.52
981.36;1.52
981.61;1.52
981.85;1.52
982.09;1.52
982.33;1.52
982.57;1.52
982.81;1.52
983.05;1.52
983.29;1.52
983.53;1.52
983.78;1.52
984.02;1.52
984.26;1.52
984.50;1.52
984.74;1.52
984.98;1.52
985.22;1.52
985.46;1.53
985.70;1.53
985.94;1.53
986.19;1.53
986.43;1.53
986.67;1.53
986.91;1.53
987.15;1.53
987.39;1.53
987.63;1.53
987.87;1.53
988.11;1.53
988.36;1.53
988.60;1.53
988.84;1.53
989.08;1.53
989.32;1.53
989.56;1.53
989.80;1.53
990.04;1.53
990.28;1.53
990.53;1.53
990.77;1.53
991.01;1.53
991.25;1.53
991.49;1.53
991.73;1.53
991.97;1.53
992.21;1.53
992.45;1.53
992.69;1.53
992.94;1.53
993.18;1.53
993.42;1.53
993.66;1.53
993.90;1.53
994.14;1.53
994.38;1.53
994.62;1.54
994.86;1.54
995.11;1.54
995.35;1.54
995.59;1.54
995.83;1.54
996.07;1.54
996.31;1.54
996.55;1.54
996.79;1.54
997.03;1.54
997.27;1.54
997.52;1.54
997.76;1.54
998.00;1.54
998.24;1.54
998.48;1.54
998.72;1.54
998.96;1.54
999.20;1.54
999.44;1.54
999.69;1.54
999.93;1.54
1000.17;1.54
1000.41;1.55
1000.65;1.55
1000.89;1.55
1001.13;1.55
1001.37;1.55
1001.61;1.55
1001.86;1.55
1002.10;1.55
1002.34;1.55
1002.58;1.55
1002.82;1.55
1003.06;1.55
1003.30;1.55
1003.54;1.55
1003.78;1.55
1004.02;1.55
1004.27;1.55
1004.51;1.56
1004.75;1.56
1004.99;1.56
1005.23;1.56
1005.47;1.56
1005.71;1.56
1005.95;1.56
1006.19;1.56
1006.44;1.56
1006.68;1.56
1006.92;1.56
1007.16;1.56
1007.40;1.57
1007.64;1.57
1007.88;1.57
1008.12;1.57
1008.36;1.57
1008.61;1.57
1008.85;1.57
1009.09;1.57
1009.33;1.57
1009.57;1.58
1009.81;1.58
1010.05;1.58
1010.29;1.58
1010.53;1.58
1010.77;1.59
1011.02;1.59
1011.26;1.59
1011.50;1.59
1011.74;1.59
1011.98;1.60
1012.22;1.60
1012.46;1.60
1012.70;1.60
1012.94;1.60
1013.19;1.60
1013.43;1.61
1013.67;1.61
1013.91;1.61
1014.15;1.62
1014.39;1.62
1014.63;1.62
1014.87;1.63
1015.11;1.63
1015.35;1.64
1015.60;1.64
1015.84;1.64
1016.08;1.65
1016.32;1.65
1016.56;1.65
1016.80;1.66
1017.04;1.66
1017.28;1.67
1017.52;1.67
1017.77;1.68
1018.01;1.68
1018.25;1.69
1018.49;1.69
1018.73;1.70
1018.97;1.71
1019.21;1.71
1019.45;1.72
1019.69;1.73
1019.94;1.73
1020.18;1.74
1020.42;1.74
1020.66;1.75
1020.90;1.76
1021.14;1.77
1021.38;1.77
1021.62;1.78
1021.86;1.79
1022.10;1.79
1022.35;1.80
1022.59;1.81
1022.83;1.81
1023.07;1.82
1023.31;1.83
1023.55;1.83
1023.79;1.84
1024.03;1.84
1024.27;1.85
1024.52;1.85
1024.76;1.85
1025.00;1.85
1025.24;1.85
1025.48;1.85
1025.72;1.85
1025.96;1.84
1026.20;1.84
1026.44;1.83
1026.68;1.83
1026.93;1.82
1027.17;1.81
1027.41;1.80
1027.65;1.80
1027.89;1.79
1028.13;1.78
1028.37;1.77
1028.61;1.76
1028.85;1.76
1029.10;1.75
1029.34;1.74
1029.58;1.73
1029.82;1.73
1030.06;1.72
1030.30;1.72
1030.54;1.71
1030.78;1.71
1031.02;1.71
1031.27;1.70
1031.51;1.70
1031.75;1.69
1031.99;1.69
1032.23;1.69
1032.47;1.68
1032.71;1.68
1032.95;1.68
1033.19;1.68
1033.43;1.67
1033.68;1.67
1033.92;1.67
1034.16;1.67
1034.40;1.67
1034.64;1.66
1034.88;1.66
1035.12;1.66
1035.36;1.66
1035.60;1.66
1035.85;1.65
1036.09;1.65
1036.33;1.65
1036.57;1.65
1036.81;1.65
1037.05;1.65
1037.29;1.64
1037.53;1.64
1037.77;1.64
1038.01;1.64
1038.26;1.64
1038.50;1.64
1038.74;1.64
1038.98;1.63
1039.22;1.63
1039.46;1.63
1039.70;1.63
1039.94;1.63
1040.18;1.62
1040.43;1.62
1040.67;1.62
1040.91;1.62
1041.15;1.62
1041.39;1.62
1041.63;1.62
1041.87;1.61
1042.11;1.61
1042.35;1.61
1042.59;1.61
1042.84;1.61
1043.08;1.61
1043.32;1.61
1043.56;1.60
1043.80;1.60
1044.04;1.60
1044.28;1.60
1044.52;1.60
1044.76;1.60
1045.01;1.60
1045.25;1.60
1045.49;1.60
1045.73;1.60
1045.97;1.60
1046.21;1.60
1046.45;1.59
1046.69;1.59
1046.93;1.59
1047.18;1.59
1047.42;1.59
1047.66;1.59
1047.90;1.59
1048.14;1.59
1048.38;1.59
1048.62;1.59
1048.86;1.59
1049.10;1.59
1049.34;1.59
1049.59;1.59
1049.83;1.59
1050.07;1.59
1050.31;1.59
1050.55;1.59
1050.79;1.59
1051.03;1.59
1051.27;1.59
1051.51;1.59
1051.76;1.59
1052.00;1.59
1052.24;1.59
1052.48;1.59
1052.72;1.59
1052.96;1.59
1053.20;1.59
1053.44;1.59
1053.68;1.59
1053.92;1.59
1054.17;1.59
1054.41;1.59
1054.65;1.59
1054.89;1.59
1055.13;1.59
1055.37;1.59
1055.61;1.59
1055.85;1.59
1056.09;1.59
1056.34;1.59
1056.58;1.59
1056.82;1.59
1057.06;1.59
1057.30;1.59
1057.54;1.59
1057.78;1.59
1058.02;1.59
1058.26;1.59
1058.51;1.59
1058.75;1.59
1058.99;1.59
1059.23;1.59
1059.47;1.59
1059.71;1.59
1059.95;1.59
1060.19;1.59
1060.43;1.59
1060.67;1.59
1060.92;1.59
1061.16;1.59
1061.40;1.59
1061.64;1.59
1061.88;1.59
1062.12;1.59
1062.36;1.59
1062.60;1.59
1062.84;1.59
1063.09;1.59
1063.33;1.59
1063.57;1.59
1063.81;1.59
1064.05;1.59
1064.29;1.59
1064.53;1.59
1064.77;1.60
1065.01;1.60
1065.25;1.60
1065.50;1.60
1065.74;1.60
1065.98;1.60
1066.22;1.60
1066.46;1.60
1066.70;1.60
1066.94;1.60
1067.18;1.60
1067.42;1.60
1067.67;1.60
1067.91;1.60
1068.15;1.60
1068.39;1.60
1068.63;1.60
1068.87;1.60
1069.11;1.60
1069.35;1.60
1069.59;1.60
1069.83;1.60
1070.08;1.60
1070.32;1.60
1070.56;1.60
1070.80;1.60
1071.04;1.60
1071.28;1.60
1071.52;1.60
1071.76;1.60
1072.00;1.60
1072.25;1.60
1072.49;1.60
1072.73;1.60
1072.97;1.60
1073.21;1.60
1073.45;1.60
1073.69;1.60
1073.93;1.60
1074.17;1.61
1074.42;1.61
1074.66;1.61
1074.90;1.61
1075.14;1.61
1075.38;1.61
1075.62;1.61
1075.86;1.61
